# Sp√§tere Messung (ganzes Spannungsintervall)
# U[V], I[mikro A]

0 0.78
10 0.81
20 0.85
30 0.91
40 0.96
50 0.99
60 1.01
70 1.02
80 1.03
90 1.03
100 1.04
110 1.05
120 1.05
130 1.06
140 1.06
150 1.06
160 1.07
170 1.07
180 1.08
190 1.08
200 1.08